#undulator wavenumber	set wavenumber	counts
1799.999856	1800.000000	12704.000	1798.561151
1798.060863	1798.000000	12686.000	1801.801802
1796.059589	1796.000000	12456.000	1798.561151
1794.068558	1794.000000	12495.000	1795.332136
1792.034407	1792.000000	12544.000	1792.114695
1790.085290	1790.000000	12317.000	1792.114695
1788.066871	1788.000000	13103.000	1788.908766
1786.065439	1786.000000	12613.000	1788.908766
1784.082806	1784.000000	13342.500	1785.714286
1782.055027	1782.000000	12881.000	1782.531194
1780.099027	1780.000000	12485.000	1782.531194
1778.060687	1778.000000	12263.500	1776.198934
1776.056030	1776.000000	12658.000	1776.198934
1774.065015	1774.000000	12530.500	1776.198934
1772.062757	1772.000000	12306.500	1773.049645
1770.076294	1770.000000	12419.500	1769.911504
1768.066144	1768.000000	12527.500	1766.784452
1766.057436	1766.000000	12442.500	1763.668430
1764.079115	1764.000000	12418.000	1763.668430
1762.041882	1762.000000	12109.500	1760.563380
1760.077190	1760.000000	12179.000	1757.469244
1758.073910	1758.000000	11459.000	1754.385965
1756.066243	1756.000000	11184.500	1754.385965
1754.074847	1754.000000	11315.000	1751.313485
1752.080903	1752.000000	11257.500	1751.313485
1750.086279	1750.000000	11011.000	1748.251748
1748.068384	1748.000000	10992.000	1745.200698
1746.081662	1746.000000	11527.000	1748.251748
1744.052302	1744.000000	11133.000	1742.160279
1742.067105	1742.000000	11528.000	1739.130435
1740.062503	1740.000000	11003.500	1739.130435
1738.068248	1738.000000	11290.000	1739.130435
1736.076148	1736.000000	11670.000	1736.111111
1734.070868	1734.000000	11895.000	1736.111111
1732.048615	1732.000000	12057.000	1730.103806
1730.084051	1730.000000	12386.500	1727.115717
1728.041816	1728.000000	12466.000	1724.137931
1726.083942	1726.000000	11587.500	1721.170396
1724.072238	1724.000000	11684.000	1721.170396
1722.049204	1722.000000	11290.500	1721.170396
1720.080913	1720.000000	11436.500	1718.213058
1718.032104	1718.000000	11359.500	1715.265866
1716.092711	1716.000000	10845.000	1715.265866
1714.068077	1714.000000	11192.000	1709.401709
1712.067853	1712.000000	11208.500	1709.401709
1710.072292	1710.000000	11052.500	1712.328767
1708.083419	1708.000000	11337.000	1706.484642
1706.075300	1706.000000	11417.500	1703.577513
1704.038503	1704.000000	11256.500	1700.680272
1702.064212	1702.000000	10796.500	1697.792869
1700.072525	1700.000000	11296.500	1697.792869
1698.063579	1698.000000	11546.000	1697.792869
1696.055348	1696.000000	11320.000	1697.792869
1694.069655	1694.000000	12208.000	1692.047377
1692.071141	1692.000000	11906.500	1689.189189
1690.041632	1690.000000	11929.500	1689.189189
1688.062579	1688.000000	12004.000	1686.340641
1686.054609	1686.000000	11824.000	1686.340641
1684.060769	1684.000000	11483.000	1683.501684
1682.076732	1682.000000	11651.000	1680.672269
1680.045993	1680.000000	11784.500	1677.852349
1678.065767	1678.000000	11892.000	1680.672269
1676.045538	1676.000000	11553.500	1675.041876
1674.051185	1674.000000	11520.000	1675.041876
1672.055423	1672.000000	11379.000	1672.240803
1670.060508	1670.000000	11480.000	1669.449082
1668.075635	1668.000000	11339.000	1666.666667
1666.059666	1666.000000	10838.500	1663.893511
1664.069886	1664.000000	10691.000	1663.893511
1662.051151	1662.000000	10471.000	1661.129568
1660.065692	1660.000000	10296.500	1658.374793
1658.039610	1658.000000	10425.500	1658.374793
1656.056588	1656.000000	10303.000	1655.629139
1654.048756	1654.000000	10422.500	1655.629139
1652.049334	1652.000000	10810.500	1650.165017
1650.067265	1650.000000	10566.000	1647.446458
1648.044587	1648.000000	10967.000	1644.736842
1646.050976	1646.000000	10843.000	1642.036125
1644.079751	1644.000000	10847.000	1639.344262
1642.013746	1642.000000	10710.500	1642.036125
1640.052442	1640.000000	10501.500	1642.036125
1638.040543	1638.000000	10417.000	1639.344262
1636.067835	1636.000000	10564.000	1633.986928
1634.025643	1634.000000	10432.500	1631.321370
1632.022634	1632.000000	10111.000	1633.986928
1630.056680	1630.000000	9927.500	1628.664495
1628.025747	1628.000000	10198.000	1628.664495
1626.027100	1626.000000	9656.000	1623.376623
1624.023069	1624.000000	9535.500	1618.122977
1622.010817	1622.000000	9747.000	1620.745543
1620.045536	1620.000000	9562.000	1615.508885
1618.022178	1618.000000	9875.500	1615.508885
1616.029200	1616.000000	9314.500	1612.903226
1614.009082	1614.000000	9482.000	1610.305958
1611.983615	1612.000000	9542.500	1610.305958
1609.993293	1610.000000	9783.500	1605.136437
1607.965992	1608.000000	9647.000	1605.136437
1606.017813	1606.000000	8965.000	1602.564103
1604.006423	1604.000000	8840.000	1602.564103
1601.962596	1602.000000	8531.500	1602.564103
1599.957249	1600.000000	8363.000	1594.896332
1597.958193	1598.000000	8486.000	1592.356688
1595.998003	1596.000000	7950.500	1592.356688
1594.010347	1594.000000	7690.500	1592.356688
1591.995447	1592.000000	7443.500	1592.356688
1590.031141	1590.000000	7663.000	1587.301587
1587.971308	1588.000000	7372.500	1584.786054
1586.023454	1586.000000	7319.500	1582.278481
1583.974988	1584.000000	7740.000	1582.278481
1582.038922	1582.000000	7432.500	1579.778831
1579.996736	1580.000000	7304.000	1577.287066
1577.986209	1578.000000	7408.000	1577.287066
1575.948008	1576.000000	7603.000	1574.803150
1574.010939	1574.000000	7899.500	1572.327044
1571.967419	1572.000000	7857.000	1569.858713
1570.027300	1570.000000	7766.500	1567.398119
1568.007873	1568.000000	7787.000	1567.398119
1566.000746	1566.000000	7864.500	1562.500000
1563.938335	1564.000000	7579.500	1560.062402
1562.142416	1562.000000	7484.500	1562.500000
1559.663119	1560.000000	7437.500	1557.632399
1557.932094	1558.000000	7682.500	1555.209953
1556.003927	1556.000000	7437.500	1555.209953
1554.005901	1554.000000	7505.000	1552.795031
1552.010109	1552.000000	7424.500	1555.209953
1550.024242	1550.000000	7119.000	1550.387597
1548.030990	1548.000000	7056.500	1543.209877
1546.004853	1546.000000	7050.500	1540.832049
1544.056963	1544.000000	7099.500	1543.209877
1542.023375	1542.000000	6859.000	1540.832049
1540.065576	1540.000000	6907.500	1536.098310
1538.026868	1538.000000	6961.000	1536.098310
1536.051356	1536.000000	6989.500	1531.393568
1534.007724	1534.000000	6879.500	1526.717557
1532.070682	1532.000000	6496.000	1524.390244
1530.014446	1530.000000	6683.000	1524.390244
1528.037268	1528.000000	6953.500	1524.390244
1526.042371	1526.000000	6976.000	1522.070015
1524.060573	1524.000000	6954.500	1519.756839
1522.027621	1522.000000	7113.500	1517.450683
1520.059003	1520.000000	6910.500	1515.151515
1518.013891	1518.000000	6777.000	1512.859304
1516.091952	1516.000000	7142.000	1510.574018
1514.006147	1514.000000	7100.500	1508.295626
1512.077416	1512.000000	7424.000	1508.295626
1510.027945	1510.000000	7059.000	1503.759398
1508.063844	1508.000000	6988.000	1506.024096
1506.017746	1506.000000	7432.000	1501.501502
1504.080344	1504.000000	6975.500	1499.250375
1502.014126	1502.000000	6870.500	1499.250375
1500.051677	1500.000000	6939.500	1497.005988
1498.045874	1498.000000	7292.000	1494.768311
1496.045428	1496.000000	6814.500	1494.768311
1494.024872	1494.000000	6830.000	1488.095238
1492.038483	1492.000000	6983.500	1488.095238
1490.024065	1490.000000	6986.000	1485.884101
1488.002459	1488.000000	6940.500	1485.884101
1486.074884	1486.000000	6948.000	1483.679525
1484.030716	1484.000000	6784.000	1479.289941
1482.054982	1482.000000	6812.000	1477.104874
1480.017251	1480.000000	6651.000	1479.289941
1478.068785	1478.000000	6544.000	1472.754050
1476.026961	1476.000000	6698.000	1472.754050
1474.072248	1474.000000	6709.000	1468.428781
1472.023675	1472.000000	6756.500	1466.275660
1470.054476	1470.000000	6620.000	1464.128843
1468.022865	1468.000000	6727.000	1464.128843
1466.052527	1466.000000	7173.500	1459.854015
1464.011808	1464.000000	6749.500	1459.854015
1462.040459	1462.000000	6912.000	1457.725948
1460.035613	1460.000000	7187.500	1455.604076
1458.057730	1458.000000	7231.500	1455.604076
1456.051700	1456.000000	6762.000	1451.378810
1454.025389	1454.000000	6776.500	1449.275362
1452.071336	1452.000000	6544.500	1447.178003
1450.049352	1450.000000	6989.000	1445.086705
1448.081010	1448.000000	6818.000	1443.001443
1446.074090	1446.000000	6640.500	1440.922190
1444.110470	1444.000000	6477.500	1438.848921
1442.073147	1442.000000	6670.500	1436.781609
1440.052764	1440.000000	6949.500	1436.781609
1437.828166	1438.000000	6881.500	1432.664756
1435.921500	1436.000000	6931.500	1432.664756
1433.927969	1434.000000	6895.000	1428.571429
1431.946116	1432.000000	7230.500	1428.571429
1429.879564	1430.000000	7150.000	1426.533524
1427.918462	1428.000000	7091.500	1422.475107
1425.888721	1426.000000	7093.000	1422.475107
1423.844063	1424.000000	7130.500	1420.454545
1421.910186	1422.000000	7134.000	1418.439716
1419.902518	1420.000000	7372.500	1416.430595
#Inf	1418.000000	7304.000	1414.427157
1415.903742	1416.000000	7024.500	1410.437236
1413.869808	1414.000000	6374.500	1410.437236
1411.923041	1412.000000	6537.000	1408.450704
1409.893959	1410.000000	6544.000	1408.450704
1407.914705	1408.000000	6756.000	1404.494382
1405.896132	1406.000000	6388.000	1400.560224
1403.900288	1404.000000	6656.500	1398.601399
1401.873351	1402.000000	6612.000	1398.601399
1399.925944	1400.000000	6311.500	1398.601399
1397.882516	1398.000000	6457.500	1394.700139
1395.916164	1396.000000	6496.500	1392.757660
1393.902291	1394.000000	6325.500	1392.757660
1393.899571	1392.000000	6182.500	1386.962552
1389.924769	1390.000000	6464.000	1386.962552
1387.944701	1388.000000	6272.500	1383.125864
1385.821988	1386.000000	6331.000	1381.215470
1383.888247	1384.000000	6461.500	1377.410468
1381.890573	1382.000000	6809.500	1375.515818
1379.896944	1380.000000	6601.000	1377.410468
1377.896718	1378.000000	6671.000	1371.742112
1375.881458	1376.000000	6786.000	1371.742112
1373.889451	1374.000000	6701.500	1369.863014
1371.877230	1372.000000	6698.500	1367.989056
1369.909928	1370.000000	6783.000	1366.120219
1367.881459	1368.000000	7120.000	1364.256480
1365.911786	1366.000000	7112.000	1360.544218
1363.899968	1364.000000	7027.000	1358.695652
1361.905938	1362.000000	7124.500	1358.695652
1359.919210	1360.000000	7348.000	1355.013550
1357.774727	1358.000000	7232.000	1353.179973
1355.980375	1356.000000	7495.500	1353.179973
1354.119061	1354.000000	7399.000	1349.527665
1351.982033	1352.000000	7577.000	1347.708895
1349.948135	1350.000000	7335.500	1347.708895
1347.932339	1348.000000	7348.500	1344.086022
1345.923823	1346.000000	7381.000	1342.281879
1343.944402	1344.000000	7486.500	1340.482574
1341.826199	1342.000000	7208.000	1336.898396
1339.954854	1340.000000	7158.500	1335.113485
1338.162494	1338.000000	7029.500	1335.113485
1336.016232	1336.000000	6539.500	1331.557923
1333.965277	1334.000000	6631.500	1329.787234
1331.965848	1332.000000	6604.500	1326.259947
1329.926770	1330.000000	6381.000	1322.751323
1327.925137	1328.000000	6210.000	1324.503311
1325.950441	1326.000000	6134.000	1322.751323
1324.160082	1324.000000	6226.000	1319.261214
1322.006383	1322.000000	5835.500	1319.261214
1319.962291	1320.000000	5713.500	1315.789474
1317.955950	1318.000000	5726.000	1312.335958
1315.932148	1316.000000	5344.000	1312.335958
1315.929378	1314.000000	5793.500	1308.900524
1311.959415	1312.000000	4742.000	1308.900524
1309.849650	1310.000000	4105.000	1305.483029
1307.966629	1308.000000	3895.500	1302.083333
1306.180113	1306.000000	3280.000	1300.390117
1304.039903	1304.000000	2813.000	1298.701299
1302.037728	1302.000000	2670.000	1297.016861
1300.020904	1300.000000	2596.500	1295.336788
1298.114450	1298.000000	2470.000	1291.989664
1295.967984	1296.000000	2290.000	1291.989664
1294.065687	1294.000000	2451.500	1288.659794
1291.936918	1292.000000	2695.500	1287.001287
1290.094525	1290.000000	2735.000	1285.347044
1288.025574	1288.000000	3303.000	1282.051282
1286.111933	1286.000000	3827.500	1280.409731
1284.058199	1284.000000	4511.000	1278.772379
1282.087608	1282.000000	4967.500	1277.139208
1279.973786	1280.000000	5413.000	1275.510204
1278.043469	1278.000000	5861.500	1273.885350
1276.053992	1276.000000	6539.500	1270.648030
1273.988405	1274.000000	6475.500	1272.264631
1272.112172	1272.000000	6484.000	1267.427123
1270.014476	1270.000000	6928.000	1265.822785
1268.095083	1268.000000	7245.000	1264.222503
1266.054841	1266.000000	6774.500	1261.034048
1264.114790	1264.000000	7157.000	1262.626263
1262.006095	1262.000000	7677.500	1254.705144
1260.064767	1260.000000	7624.500	1254.705144
1258.005317	1258.000000	7473.500	1253.132832
1256.099462	1256.000000	7382.000	1250.000000
1254.036115	1254.000000	7269.500	1250.000000
1252.089895	1252.000000	7513.000	1245.330012
1250.042189	1250.000000	7413.000	1245.330012
1248.083879	1248.000000	7117.000	1240.694789
1246.082938	1246.000000	6951.000	1240.694789
1244.045067	1244.000000	6865.000	1239.157373
1242.085277	1242.000000	6634.500	1237.623762
1240.043535	1240.000000	7151.500	1234.567901
1238.108126	1238.000000	7202.000	1236.093943
1236.082484	1236.000000	6503.000	1230.012300
1234.123769	1234.000000	6784.000	1230.012300
1232.071815	1232.000000	6572.500	1228.501229
1230.106714	1230.000000	6283.000	1226.993865
1228.059791	1228.000000	6465.500	1223.990208
1226.085358	1226.000000	6416.500	1221.001221
1224.046092	1224.000000	6359.500	1218.026797
1222.090807	1222.000000	6603.500	1218.026797
1220.092930	1220.000000	6827.000	1215.066829
1218.080653	1218.000000	6828.500	1212.121212
1216.070863	1216.000000	6828.000	1210.653753
1214.074916	1214.000000	6679.500	1209.189843
1212.098439	1212.000000	6987.000	1207.729469
1210.065275	1210.000000	7179.500	1204.819277
1208.096567	1208.000000	6885.000	1203.369434
1206.012212	1206.000000	7146.500	1201.923077
1204.079711	1204.000000	6955.500	1199.040767
1202.068134	1202.000000	7079.000	1199.040767
1200.081558	1200.000000	6902.000	1196.172249
1198.072397	1198.000000	7026.500	1193.317422
1196.062944	1196.000000	6995.000	1191.895113
1194.089876	1194.000000	6969.500	1190.476190
1192.071722	1192.000000	7151.500	1186.239620
1190.053297	1190.000000	7074.500	1184.834123
1188.071336	1188.000000	6853.500	1183.431953
1186.092168	1186.000000	6906.000	1183.431953
1184.039526	1184.000000	7359.500	1179.245283
1182.074036	1182.000000	7084.500	1176.470588
1180.060750	1180.000000	6963.500	1176.470588
1178.066938	1178.000000	7176.000	1173.708920
1176.070309	1176.000000	7009.000	1172.332943
1174.079196	1174.000000	6983.500	1169.590643
1172.071185	1172.000000	7075.000	1165.501166
1170.037721	1170.000000	7178.000	1164.144354
1168.088795	1168.000000	7008.000	1162.790698
1166.086247	1166.000000	7341.500	1158.748552
1164.052747	1164.000000	7049.000	1157.407407
1162.064272	1162.000000	7235.500	1156.069364
1160.061854	1160.000000	6959.500	1153.402537
1158.087516	1158.000000	7010.000	1153.402537
1156.042902	1156.000000	7140.500	1150.747986
1154.105384	1154.000000	7441.500	1150.747986
1152.043870	1152.000000	7666.000	1146.788991
1150.075410	1150.000000	7422.500	1144.164760
1148.064765	1148.000000	7166.500	1142.857143
1146.093843	1146.000000	7259.000	1141.552511
1144.077710	1144.000000	7180.000	1138.952164
1142.053398	1142.000000	7192.000	1137.656428
1140.043256	1140.000000	7360.000	1135.073780
1138.072685	1138.000000	7534.000	1128.668172
1136.057288	1136.000000	7419.500	1131.221719
1134.022267	1134.000000	7726.000	1127.395716
1132.069106	1132.000000	7662.000	1127.395716
1130.059829	1130.000000	7758.000	1124.859393
1128.061997	1128.000000	7859.500	1123.595506
1126.061580	1126.000000	7694.000	1121.076233
1124.044492	1124.000000	7876.000	1122.334456
1122.044563	1122.000000	8190.000	1117.318436
1120.067419	1120.000000	8081.000	1114.827202
1118.062353	1118.000000	8343.000	1111.111111
1116.077283	1116.000000	8698.000	1109.877913
1114.064372	1114.000000	8751.500	1108.647450
1112.034841	1112.000000	8967.500	1107.419712
1110.050766	1110.000000	8991.000	1104.972376
1108.058410	1108.000000	8662.500	1102.535832
1106.066465	1106.000000	9210.500	1100.110011
1104.058020	1104.000000	9436.500	1098.901099
1102.055521	1102.000000	9606.000	1097.694841
1100.050470	1100.000000	9526.000	1094.091904
1098.051617	1098.000000	9334.000	1094.091904
1096.075513	1096.000000	9423.000	1090.512541
1094.049291	1094.000000	10047.000	1086.956522
1092.060003	1092.000000	9924.500	1086.956522
1090.071163	1090.000000	9971.500	1084.598698
1088.088370	1088.000000	10218.000	1082.251082
1086.063824	1086.000000	10490.000	1081.081081
1084.107205	1084.000000	10901.500	1079.913607
1082.069683	1082.000000	10679.500	1076.426265
1080.029774	1080.000000	10842.500	1075.268817
1078.069015	1078.000000	11239.000	1072.961373
1076.044263	1076.000000	11264.500	1070.663812
1074.053635	1074.000000	11107.000	1068.376068
1072.055188	1072.000000	11212.500	1067.235859
1070.107676	1070.000000	11498.500	1063.829787
1068.045841	1068.000000	11442.000	1061.571125
1066.105014	1066.000000	11709.500	1060.445387
1064.047238	1064.000000	11931.500	1058.201058
1062.051642	1062.000000	11240.500	1055.966209
1060.062168	1060.000000	11701.500	1054.852321
1058.065021	1058.000000	11449.000	1053.740780
1056.074047	1056.000000	11583.000	1049.317943
1054.050108	1054.000000	11638.000	1048.218029
1052.071655	1052.000000	11664.000	1046.025105
1050.040742	1050.000000	11552.000	1043.841336
1048.063676	1048.000000	11427.500	1042.752868
1046.028606	1046.000000	11464.500	1039.501040
1044.058431	1044.000000	10961.500	1038.421599
1042.075030	1042.000000	11241.500	1036.269430
1040.055988	1040.000000	11245.000	1035.196687
1038.057363	1038.000000	11084.000	1033.057851
1036.073381	1036.000000	11422.000	1030.927835
1034.067883	1034.000000	11391.000	1028.806584
1032.085367	1032.000000	11690.500	1028.806584
1030.059187	1030.000000	11761.000	1025.641026
1028.039362	1028.000000	11762.000	1023.541453
1026.075977	1026.000000	12038.500	1021.450460
1024.043937	1024.000000	11598.500	1019.367992
1022.057221	1022.000000	11689.500	1017.293998
1020.054683	1020.000000	11702.000	1015.228426
1018.086303	1018.000000	11775.500	1014.198783
1016.035582	1016.000000	11471.500	1011.122346
1014.060558	1014.000000	11454.000	1009.081736
1012.072712	1012.000000	11690.500	1006.036217
1010.057955	1010.000000	11659.000	1005.025126
1008.066345	1008.000000	10969.500	1003.009027
1006.034092	1006.000000	11360.500	1001.001001
1004.091371	1004.000000	11098.000	1000.000000
1002.077708	1002.000000	11039.500	997.008973
1000.081607	1000.000000	10870.500	995.024876
998.053297	998.000000	11135.500	994.035785
996.067525	996.000000	11050.000	991.080278
994.068888	994.000000	11241.000	989.119683
992.085046	992.000000	10882.000	986.193294
990.069210	990.000000	11454.500	985.221675
988.057156	988.000000	10911.500	982.318271
986.071056	986.000000	10790.500	979.431929
984.069393	984.000000	11334.500	979.431929
982.077093	982.000000	11269.000	977.517107
980.039247	980.000000	11050.500	974.658869
978.082157	978.000000	10752.000	973.709834
976.079417	976.000000	10949.500	971.817298
974.088847	974.000000	10896.500	969.932105
972.069337	972.000000	10969.500	967.117988
970.094791	970.000000	10620.500	965.250965
968.083075	968.000000	10672.500	963.391137
966.064287	966.000000	10852.500	962.463908
964.052228	964.000000	10878.500	958.772771
962.068802	962.000000	10691.500	956.937799
960.072873	960.000000	10256.500	956.022945
958.045465	958.000000	10214.000	952.380952
956.101188	956.000000	10347.000	951.474786
954.062647	954.000000	9922.000	949.667616
952.085353	952.000000	9943.500	946.969697
950.060362	950.000000	9311.000	946.969697
948.061224	948.000000	8921.500	944.287063
946.074241	946.000000	8671.000	942.507069
944.085854	944.000000	8203.000	940.733772
942.063562	942.000000	7310.000	938.967136
940.072450	940.000000	6189.000	935.453695
938.074600	938.000000	5160.000	933.706816
936.061829	936.000000	4360.500	931.966449
934.058636	934.000000	3842.500	931.098696
932.073121	932.000000	3630.500	928.505107
930.075440	930.000000	3560.500	925.925926
928.081912	928.000000	3485.500	925.069380
926.084475	926.000000	4041.000	922.509225
924.056081	924.000000	4553.000	920.810313
922.072347	922.000000	5317.500	918.273646
920.057747	920.000000	6345.500	916.590284
918.095928	918.000000	7260.000	902.527076
916.086982	916.000000	8295.500	912.408759
