#undulator wavenumber	set wavenumber	counts
1800.003744	1800.000000	6777.500	1808.318264
1798.063126	1798.000000	6715.000	1805.054152
1796.049589	1796.000000	6789.000	1805.054152
1794.072742	1794.000000	6702.000	1801.801802
1792.048537	1792.000000	7068.000	1798.561151
1790.097467	1790.000000	6891.000	1792.114695
1788.058878	1788.000000	6952.000	1798.561151
1786.045023	1786.000000	6989.000	1788.908766
1784.078986	1784.000000	6882.500	1785.714286
1782.040736	1782.000000	6778.000	1785.714286
1780.080648	1780.000000	6934.500	1785.714286
1778.064797	1778.000000	6857.000	1779.359431
1776.068332	1776.000000	6954.000	1782.531194
1774.081381	1774.000000	6886.000	1779.359431
1772.056477	1772.000000	6923.500	1773.049645
1770.080367	1770.000000	6838.000	1776.198934
1768.062080	1768.000000	6705.500	1773.049645
1766.044960	1766.000000	7035.500	1769.911504
1764.068846	1764.000000	6774.500	1763.668430
1762.068894	1762.000000	6777.500	1769.911504
1760.066657	1760.000000	6962.500	1763.668430
1758.059384	1758.000000	6740.000	1763.668430
1756.081045	1756.000000	6486.000	1760.563380
1754.057925	1754.000000	6563.500	1760.563380
1752.076605	1752.000000	6272.000	1757.469244
1750.069434	1750.000000	6542.000	1757.469244
1748.055550	1748.000000	6178.000	1754.385965
1746.100565	1746.000000	6309.000	1751.313485
1744.050173	1744.000000	6080.000	1748.251748
1742.037061	1742.000000	6034.500	1751.313485
1740.056145	1740.000000	6158.500	1745.200698
1738.059790	1738.000000	6306.500	1745.200698
1736.084588	1736.000000	6142.000	1742.160279
1734.070868	1734.000000	6246.500	1742.160279
1732.037815	1732.000000	6302.000	1733.102253
1730.049630	1730.000000	6288.000	1736.111111
1728.072275	1728.000000	6619.500	1736.111111
1726.079771	1726.000000	6488.500	1736.111111
1724.078480	1724.000000	6750.000	1733.102253
1722.066700	1722.000000	6581.000	1724.137931
1720.083280	1720.000000	6692.000	1727.115717
1718.043025	1718.000000	6594.000	1727.115717
1716.075041	1716.000000	6885.500	1721.170396
1714.057206	1714.000000	6791.000	1718.213058
1712.069904	1712.000000	6608.500	1718.213058
1710.067613	1710.000000	6654.000	1715.265866
1708.065914	1708.000000	6659.000	1712.328767
1706.064239	1706.000000	6554.000	1712.328767
1704.049537	1704.000000	6482.500	1709.401709
1702.070876	1702.000000	6414.000	1709.401709
1700.059230	1700.000000	6311.000	1703.577513
1698.059254	1698.000000	6589.000	1703.577513
1696.066280	1696.000000	6243.000	1700.680272
1694.069655	1694.000000	6129.500	1697.792869
1692.075722	1692.000000	6167.500	1694.915254
1690.046202	1690.000000	6022.500	1694.915254
1688.066853	1688.000000	5940.000	1694.915254
1686.047786	1686.000000	6128.000	1689.189189
1684.051694	1684.000000	6058.500	1689.189189
1682.074469	1682.000000	6165.500	1689.189189
1680.050509	1680.000000	6329.500	1686.340641
1678.056757	1678.000000	6292.500	1686.340641
1676.068292	1676.000000	6542.500	1683.501684
1674.064918	1674.000000	6172.000	1680.672269
1672.055423	1672.000000	6761.500	1680.672269
1670.035128	1670.000000	6365.500	1677.852349
1668.034177	1668.000000	6357.000	1675.041876
1666.041068	1666.000000	6598.000	1675.041876
1664.026135	1664.000000	6442.000	1675.041876
1662.034853	1662.000000	6496.500	1669.449082
1660.024080	1660.000000	6449.500	1669.449082
1658.044284	1658.000000	6487.000	1663.893511
1656.007773	1656.000000	6658.000	1663.893511
1654.034803	1654.000000	6711.000	1661.129568
1652.009761	1652.000000	6512.500	1658.374793
1650.034865	1650.000000	6643.500	1658.374793
1648.030464	1648.000000	6624.000	1658.374793
1645.999497	1646.000000	6729.000	1655.629139
1644.016503	1644.000000	6673.000	1652.892562
1641.995142	1642.000000	6911.500	1647.446458
1639.988966	1640.000000	6705.000	1650.165017
1637.962735	1638.000000	6708.500	1644.736842
1636.020459	1636.000000	6833.500	1644.736842
1633.942876	1634.000000	7087.500	1642.036125
1632.003724	1632.000000	6916.500	1639.344262
1629.964219	1630.000000	6814.000	1633.986928
1628.016205	1628.000000	6640.000	1633.986928
1625.996167	1626.000000	6574.000	1631.321370
1624.037311	1624.000000	6760.000	1628.664495
1621.977405	1622.000000	6664.500	1626.016260
1620.040812	1620.000000	6726.000	1631.321370
1618.005423	1618.000000	6370.000	1620.745543
1616.031811	1616.000000	6631.000	1618.122977
1613.999704	1614.000000	6520.000	1618.122977
1612.038705	1612.000000	6875.500	1615.508885
1610.038915	1610.000000	6729.500	1615.508885
1608.043304	1608.000000	6842.000	1612.903226
1606.010591	1606.000000	6533.000	1612.903226
1604.018516	1604.000000	6768.000	1610.305958
1602.035482	1602.000000	6527.500	1607.717042
1600.025088	1600.000000	6816.000	1605.136437
1598.055486	1598.000000	6764.500	1600.000000
1596.029589	1596.000000	6632.500	1602.564103
1594.024830	1594.000000	6690.000	1600.000000
1592.061345	1592.000000	6662.000	1597.444089
1590.033669	1590.000000	6380.000	1594.896332
1588.025273	1588.000000	6689.000	1594.896332
1586.028485	1586.000000	6102.500	1589.825119
1584.009362	1584.000000	6314.500	1589.825119
1581.999378	1582.000000	6284.500	1587.301587
1580.050909	1580.000000	6134.000	1584.786054
1578.015841	1578.000000	6094.000	1582.278481
1576.054313	1576.000000	6088.000	1582.278481
1574.008461	1574.000000	6249.500	1579.778831
1572.058855	1572.000000	6350.000	1577.287066
1569.987614	1570.000000	6308.500	1574.803150
1568.055080	1568.000000	6097.500	1569.858713
1566.015705	1566.000000	6244.000	1572.327044
1564.047919	1564.000000	5845.500	1569.858713
1562.025291	1562.000000	6121.500	1567.398119
1560.055101	1560.000000	6157.500	1567.398119
1558.027002	1558.000000	6018.000	1564.945227
1556.081649	1556.000000	5745.500	1560.062402
1554.000830	1554.000000	5528.000	1557.632399
1552.060212	1552.000000	5512.500	1560.062402
1550.036736	1550.000000	5557.000	1555.209953
1548.088745	1548.000000	5273.000	1550.387597
1546.045247	1546.000000	5186.500	1550.387597
1544.059347	1544.000000	5085.000	1547.987616
1542.040971	1542.000000	4957.500	1547.987616
1540.105898	1540.000000	4838.500	1545.595054
1538.039406	1538.000000	4879.500	1543.209877
1536.086984	1536.000000	5039.500	1538.461538
1534.033139	1534.000000	4732.500	1538.461538
1532.093686	1532.000000	4802.500	1536.098310
1530.034813	1530.000000	4753.500	1531.393568
1528.083034	1528.000000	4827.000	1529.051988
1526.050056	1526.000000	4909.500	1526.717557
1524.091002	1524.000000	5007.500	1526.717557
1522.030169	1522.000000	4966.000	1524.390244
1520.079567	1520.000000	4842.500	1522.070015
1518.039470	1518.000000	4819.500	1517.450683
1516.097008	1516.000000	4922.500	1517.450683
1514.021505	1514.000000	4864.500	1515.151515
#Inf	1512.000000	4804.500	1515.151515
1510.025436	1510.000000	3562.500	1508.295626
1508.074305	1508.000000	3479.000	1508.295626
1506.025457	1506.000000	3806.000	1506.024096
1504.085321	1504.000000	3942.500	1506.024096
1502.021796	1502.000000	3972.000	1503.759398
1500.072378	1500.000000	4091.000	1503.759398
1498.045874	1498.000000	3975.500	1497.005988
1496.035133	1496.000000	4097.500	1497.005988
1494.045631	1494.000000	4162.500	1497.005988
1492.030691	1492.000000	4340.000	1494.768311
1490.037165	1490.000000	4245.500	1494.768311
#Inf	1488.000000	4466.000	1490.312966
1486.067154	1486.000000	3441.000	1485.884101
1483.999444	1484.000000	3362.500	1485.884101
1482.065525	1482.000000	3479.000	1483.679525
1480.027765	1480.000000	3374.500	1483.679525
1478.079271	1478.000000	3480.000	1479.289941
1476.019117	1476.000000	3631.500	1474.926254
1474.066816	1474.000000	3559.500	1474.926254
1472.028875	1472.000000	3892.500	1470.588235
1470.080625	1470.000000	3747.500	1470.588235
1468.028253	1468.000000	3772.500	1468.428781
1466.071012	1466.000000	3829.500	1466.275660
1464.014594	1464.000000	4290.000	1464.128843
1462.074661	1462.000000	4290.000	1459.854015
1460.022397	1460.000000	4296.000	1459.854015
1458.063045	1458.000000	4317.000	1455.604076
1456.041100	1456.000000	4495.000	1457.725948
1454.051817	1454.000000	4631.000	1453.488372
1452.044769	1452.000000	4374.500	1449.275362
1450.025383	1450.000000	4366.500	1449.275362
1448.081010	1448.000000	4293.500	1445.086705
1446.036868	1446.000000	4157.000	1445.086705
1444.073141	1444.000000	4273.500	1443.001443
1442.033221	1442.000000	4211.000	1440.922190
1440.076819	1440.000000	4300.500	1436.781609
1438.041342	1438.000000	4558.000	1434.720230
1436.073683	1436.000000	4341.000	1434.720230
1434.048058	1434.000000	4207.000	1432.664756
1432.087613	1432.000000	4396.000	1430.615165
1430.085480	1430.000000	4373.500	1428.571429
1428.006754	1428.000000	4495.000	1426.533524
1426.004010	1426.000000	4534.000	1422.475107
1424.018232	1424.000000	4771.500	1422.475107
1422.030899	1422.000000	4631.000	1420.454545
1420.058180	1420.000000	4776.000	1418.439716
1418.027583	1418.000000	4821.000	1416.430595
1416.059732	1416.000000	4996.500	1416.430595
1413.990960	1414.000000	4975.500	1412.429379
1412.025316	1412.000000	4865.000	1414.427157
1409.988386	1410.000000	4700.500	1410.437236
1408.038803	1408.000000	4887.000	1406.469761
1406.012164	1406.000000	4979.000	1408.450704
1404.065077	1404.000000	4608.000	1402.524544
1402.059878	1402.000000	4806.000	1400.560224
1400.028841	1400.000000	4907.000	1400.560224
1398.042377	1398.000000	5027.000	1396.648045
1396.062517	1396.000000	4828.000	1394.700139
1394.032482	1394.000000	4890.500	1392.757660
1392.036244	1392.000000	5159.500	1390.820584
1390.022529	1390.000000	5020.500	1390.820584
1388.056055	1388.000000	5432.500	1388.888889
1386.072082	1386.000000	5191.500	1385.041551
1384.070402	1384.000000	5243.000	1381.215470
1382.021203	1382.000000	5535.000	1379.310345
1380.060527	1380.000000	5298.000	1379.310345
1378.049382	1378.000000	5497.000	1375.515818
1376.034245	1376.000000	5621.000	1371.742112
1374.047836	1374.000000	5803.000	1371.742112
1372.046447	1372.000000	5895.000	1369.863014
1370.068524	1370.000000	5696.000	1367.989056
1368.042767	1368.000000	5801.000	1366.120219
1366.070577	1366.000000	5925.500	1364.256480
1364.050477	1364.000000	5854.000	1362.397820
1362.056749	1362.000000	5965.500	1360.544218
1360.045164	1360.000000	6166.000	1358.695652
1358.051685	1358.000000	6216.500	1355.013550
1356.065328	1356.000000	6175.000	1353.179973
1354.077805	1354.000000	5939.000	1353.179973
1352.078185	1352.000000	6294.500	1349.527665
1350.063683	1350.000000	6067.000	1347.708895
1348.094792	1348.000000	5839.000	1347.708895
1346.050459	1346.000000	6258.500	1344.086022
1344.068317	1344.000000	5811.000	1344.086022
1342.041032	1342.000000	6067.500	1340.482574
1340.089888	1340.000000	6052.500	1338.688086
1338.063298	1338.000000	5911.500	1338.688086
1336.090668	1336.000000	5921.500	1335.113485
1334.039841	1334.000000	5998.500	1333.333333
1332.092888	1332.000000	5936.000	1331.557923
1330.062090	1330.000000	5837.000	1328.021248
1328.041354	1328.000000	5865.500	1326.259947
1326.086008	1326.000000	5618.500	1324.503311
1324.093631	1324.000000	5638.500	1322.751323
1322.070002	1322.000000	5655.500	1319.261214
1320.073111	1320.000000	5655.500	1319.261214
1318.089019	1318.000000	5403.500	1317.523057
1316.073642	1316.000000	5370.500	1314.060447
1314.101545	1314.000000	5109.500	1312.335958
1312.067690	1312.000000	4906.500	1310.615990
1310.077364	1310.000000	4404.000	1308.900524
1308.041565	1308.000000	4112.500	1305.483029
1306.049438	1306.000000	3643.000	1303.780965
1304.031570	1304.000000	3236.500	1302.083333
1302.082147	1302.000000	2810.500	1300.390117
1300.020904	1300.000000	2533.000	1297.016861
1298.019923	1298.000000	2259.500	1295.336788
1296.006951	1296.000000	2196.000	1293.661061
1294.062840	1294.000000	2166.500	1291.989664
1291.970301	1292.000000	2164.500	1288.659794
1290.072223	1290.000000	2243.000	1287.001287
1287.972488	1288.000000	2608.500	1285.347044
1286.067274	1286.000000	2970.500	1283.697047
1284.044349	1284.000000	3580.500	1280.409731
1282.017752	1282.000000	4158.500	1280.409731
1280.065867	1280.000000	4657.500	1277.139208
1278.046246	1278.000000	5103.500	1273.885350
1276.062296	1276.000000	5336.000	1273.885350
1274.030281	1274.000000	5541.500	1270.648030
1272.075762	1272.000000	5793.500	1269.035533
1270.042380	1270.000000	5798.000	1267.427123
1268.120330	1268.000000	6111.500	1267.427123
1266.051956	1266.000000	6175.000	1262.626263
1264.089542	1264.000000	6028.500	1261.034048
1262.011669	1262.000000	6266.500	1259.445844
1260.103986	1260.000000	6402.500	1256.281407
1258.027790	1258.000000	6397.000	1256.281407
1256.096622	1256.000000	6298.500	1253.132832
1254.066939	1254.000000	6213.000	1251.564456
1252.078607	1252.000000	6263.500	1250.000000
1250.073129	1250.000000	6287.000	1246.882793
1248.072664	1248.000000	6369.000	1246.882793
1246.116633	1246.000000	6576.000	1243.781095
1244.078652	1244.000000	6411.000	1242.236025
1242.102094	1242.000000	6396.500	1239.157373
1240.065986	1240.000000	6301.500	1236.093943
1238.096936	1238.000000	6160.500	1234.567901
1236.051468	1236.000000	6554.500	1233.045623
1234.036656	1234.000000	6393.500	1231.527094
1232.049349	1232.000000	5912.500	1228.501229
1230.101116	1230.000000	5934.500	1228.501229
1228.087843	1228.000000	5706.500	1223.990208
1226.065666	1226.000000	5877.000	1223.990208
1224.054482	1224.000000	6166.500	1222.493888
1222.096333	1222.000000	6087.500	1218.026797
1220.078788	1220.000000	6019.500	1216.545012
1218.046825	1218.000000	6077.000	1216.545012
1216.085060	1216.000000	6155.500	1215.066829
1214.069315	1214.000000	6169.500	1212.121212
1212.064649	1212.000000	6448.000	1209.189843
1210.048289	1210.000000	6098.000	1207.729469
1208.062853	1208.000000	6144.000	1204.819277
1206.062975	1206.000000	6092.500	1203.369434
1204.096674	1204.000000	6470.000	1201.923077
1202.073770	1202.000000	6282.500	1199.040767
1200.075941	1200.000000	6435.500	1197.604790
1198.063929	1198.000000	6305.000	1194.743130
1196.082686	1196.000000	6489.500	1193.317422
1194.084315	1194.000000	6401.500	1190.476190
1192.080106	1192.000000	6345.500	1189.060642
1190.078648	1190.000000	6347.000	1190.476190
1188.060044	1188.000000	6231.000	1184.834123
1186.069519	1186.000000	6513.000	1184.834123
1184.045134	1184.000000	6092.500	1180.637544
1182.099468	1182.000000	6152.000	1180.637544
1180.052255	1180.000000	6047.000	1177.856302
1178.072628	1178.000000	6355.500	1176.470588
1176.087184	1176.000000	6238.500	1177.856302
1174.082091	1174.000000	6321.500	1175.088132
1172.088082	1172.000000	6503.500	1170.960187
1170.068661	1170.000000	6466.500	1170.960187
1168.094390	1168.000000	6517.000	1166.861144
1166.077817	1166.000000	6553.000	1164.144354
1164.072531	1164.000000	6739.000	1161.440186
1162.036185	1162.000000	6820.500	1161.440186
1160.089981	1160.000000	6545.500	1157.407407
1158.059352	1158.000000	6581.500	1154.734411
1156.068295	1156.000000	6412.000	1152.073733
1154.094062	1154.000000	6805.000	1150.747986
1152.057938	1152.000000	6850.000	1148.105626
1150.083876	1150.000000	6965.500	1148.105626
1148.059229	1148.000000	6290.500	1145.475372
1146.037364	1146.000000	6627.000	1142.857143
1144.055197	1144.000000	6682.000	1140.250855
1142.087180	1142.000000	6344.500	1138.952164
1140.060152	1140.000000	6153.000	1137.656428
1138.055848	1138.000000	6380.500	1133.786848
1136.065677	1136.000000	6548.000	1132.502831
1134.058919	1134.000000	6369.000	1131.221719
1132.074745	1132.000000	6620.000	1128.668172
1130.059829	1130.000000	6277.500	1127.395716
1128.087448	1128.000000	6395.500	1124.859393
1126.022147	1126.000000	5877.500	1121.076233
1124.089600	1124.000000	5821.000	1121.076233
1122.061559	1122.000000	6052.000	1117.318436
1120.067419	1120.000000	6038.000	1117.318436
1118.037103	1118.000000	6261.000	1116.071429
1116.102694	1116.000000	6516.500	1112.347052
1114.044638	1114.000000	6194.000	1111.111111
1112.088390	1112.000000	6718.000	1109.877913
1110.061979	1110.000000	6471.500	1106.194690
1108.052762	1108.000000	6501.000	1104.972376
1106.080534	1106.000000	6440.500	1102.535832
1104.043881	1104.000000	6316.000	1100.110011
1102.089164	1102.000000	6139.000	1098.901099
1100.081450	1100.000000	6183.000	1096.491228
1098.062830	1098.000000	6155.500	1095.290252
1096.078396	1096.000000	5939.500	1091.703057
1094.029661	1094.000000	5945.000	1091.703057
1092.062865	1092.000000	6189.500	1088.139282
1090.057142	1090.000000	6318.500	1086.956522
1088.060312	1088.000000	6526.000	1084.598698
1086.041414	1086.000000	6540.500	1082.251082
1084.090399	1084.000000	6616.500	1081.081081
1082.058443	1082.000000	6406.000	1077.586207
1080.069086	1080.000000	6710.500	1075.268817
1078.046584	1078.000000	6545.000	1074.113856
1076.066726	1076.000000	6796.500	1072.961373
1074.050867	1074.000000	5846.500	1127.395716
1072.052314	1072.000000	5058.000	1075.268817
1070.057179	1070.000000	4323.000	1009.081736
1068.034662	1068.000000	4719.000	1061.571125
1066.048984	1066.000000	5035.000	1062.699256
1064.041577	1064.000000	5373.000	1059.322034
1062.065628	1062.000000	5811.000	1058.201058
1060.081722	1060.000000	5622.500	1059.322034
1058.081814	1058.000000	5676.000	1053.740780
1056.051630	1056.000000	5946.000	1052.631579
1054.055775	1054.000000	6001.500	1049.317943
1052.071655	1052.000000	6135.500	1049.317943
1050.068748	1050.000000	6106.500	1044.932079
1048.069278	1048.000000	6097.500	1024.590164
1046.036922	1046.000000	6326.000	1041.666667
1044.061156	1044.000000	6260.000	1041.666667
1042.047122	1042.000000	6157.500	1039.501040
1040.095040	1040.000000	6168.500	1035.196687
1038.062966	1038.000000	6269.500	1033.057851
1036.053845	1036.000000	6350.500	1011.122346
1034.076224	1034.000000	6738.000	1028.806584
1032.068643	1032.000000	6332.500	1028.806584
1030.075846	1030.000000	6421.500	1025.641026
1028.036615	1028.000000	6482.500	1022.494888
1026.070502	1026.000000	6454.500	1023.541453
1024.046769	1024.000000	6568.500	1019.367992
1022.093366	1022.000000	6527.500	1017.293998
1020.060198	1020.000000	6364.000	1016.260163
1018.089102	1018.000000	6452.000	1013.171226
1016.060461	1016.000000	6449.500	1013.171226
1014.055005	1014.000000	6473.500	1011.122346
1012.081009	1012.000000	6566.000	1009.081736
1010.044080	1010.000000	6612.000	1006.036217
1008.077422	1008.000000	6703.000	1006.036217
1006.050691	1006.000000	6679.000	1003.009027
1004.074837	1004.000000	6445.000	1001.001001
1002.061140	1002.000000	6733.500	998.003992
1000.092709	1000.000000	6767.000	996.015936
998.045029	998.000000	6623.500	995.024876
996.073081	996.000000	7014.000	992.063492
994.052287	994.000000	6702.500	984.251969
992.051977	992.000000	6594.500	990.099010
990.060976	990.000000	6593.500	987.166831
988.059987	988.000000	6570.000	984.251969
986.062791	986.000000	6496.000	982.318271
984.077624	984.000000	6523.000	980.392157
982.077093	982.000000	6320.000	978.473581
980.047411	980.000000	6530.000	976.562500
978.082157	978.000000	6625.000	975.609756
976.071224	976.000000	6663.000	972.762646
974.088847	974.000000	6529.500	970.873786
972.055636	972.000000	6578.000	968.054211
970.061854	970.000000	6593.500	966.183575
968.063864	968.000000	6635.500	964.320154
966.075206	966.000000	6618.000	962.463908
964.041261	964.000000	6514.500	960.614793
962.057880	962.000000	6276.500	958.772771
960.078312	960.000000	6320.000	956.937799
958.069972	958.000000	6332.000	953.288847
956.092961	956.000000	6353.000	953.288847
954.076210	954.000000	6053.000	950.570342
952.082633	952.000000	6092.000	949.667616
950.057654	950.000000	5853.500	946.969697
948.085673	948.000000	5970.500	944.287063
946.074241	946.000000	5614.500	943.396226
944.080418	944.000000	5311.500	941.619586
942.071727	942.000000	5313.500	938.967136
940.080580	940.000000	4574.000	938.086304
938.069144	938.000000	4232.000	935.453695
936.048248	936.000000	3996.000	933.706816
934.077569	934.000000	3545.500	932.835821
932.075814	932.000000	3576.000	930.232558
930.086253	930.000000	3770.500	926.784059
928.052197	928.000000	3657.500	925.925926
926.087219	926.000000	3687.000	923.361034
924.074952	924.000000	3856.500	921.658986
922.072347	922.000000	3984.500	920.810313
920.065873	920.000000	4536.000	917.431193
918.087836	918.000000	5220.000	915.750916
916.068184	916.000000	5728.500	913.242009
914.098507	914.000000	5752.000	912.408759
912.068564	912.000000	5972.000	910.746812
910.085881	910.000000	6225.000	907.441016
